File: src/etc/data/comp/optics/CaF2_glass.dat
# Wavelength (nm)	% Transmission
# Transmission for uncoated CaF2 (Calcium Fluoride) glass
# From: ThorLabs Excel spreadsheet linked from https://www.thorlabs.com/NewGroupPage9.cfm?ObjectGroup_ID=3978
200	0.903151
209	0.908073
218	0.904453
227	0.910291
236	0.917256
245	0.921374
254	0.924958
263	0.926945
272	0.928498
281	0.929256
290	0.92987
299	0.928654
308	0.92558
317	0.931368
326	0.930548
335	0.92447
344	0.926518
353	0.926785
362	0.928418
371	0.928989
380	0.929875
389	0.931327
398	0.931971
407	0.932937
416	0.934212
425	0.934788
434	0.934981
443	0.9352929
452	0.935365
461	0.935137
470	0.935542
479	0.935403
488	0.935463
497	0.935352
506	0.936006
515	0.935698
524	0.936031
533	0.9361878
542	0.9359829
551	0.936833
560	0.93625
569	0.936734
578	0.937048
587	0.937146
596	0.9373441
605	0.9370842
614	0.937665
623	0.936849
632	0.937687
641	0.936969
650	0.937623
659	0.937265
668	0.937985
677	0.937561
686	0.938077
695	0.937681
704	0.937403
713	0.93774
722	0.9377405
731	0.937706
740	0.9377095
749	0.937899
758	0.938443
767	0.937932
776	0.93874
785	0.9381625
794	0.938744
803	0.93835
812	0.93847
821	0.938784
830	0.93823
839	0.938536
848	0.938373
857	0.938914
866	0.940019
875	0.939553
884	0.939842
893	0.939622
902	0.939349
911	0.940014
920	0.9401067
929	0.939696
938	0.93967
947	0.940159
956	0.939881
965	0.939893
974	0.939581
983	0.939785
992	0.939941
1001	0.938634
1010	0.938745
1019	0.938852
1028	0.938956
1037	0.939057
1046	0.939155
1055	0.939249
1064	0.939341
1073	0.93943
1082	0.939516
1091	0.939599
1100	0.939679
1109	0.939757
1118	0.939832
1127	0.939904
1136	0.939974
1145	0.940041
1154	0.940106
1163	0.940168
1172	0.940228
1181	0.940286
1190	0.940341
1199	0.940394
1208	0.940446
1217	0.940495
1226	0.940541
1235	0.940586
1244	0.940629
1253	0.940671
1262	0.94071
1271	0.940747
1280	0.940783
1289	0.940817
1298	0.940849
1307	0.94088
1316	0.940909
1325	0.940936
1334	0.940962
1343	0.940986
1352	0.941009
1361	0.941031
1370	0.941051
1379	0.94107
1388	0.941088
1397	0.941104
1406	0.941119
1415	0.941133
1424	0.941146
1433	0.941158
1442	0.941169
1451	0.941179
1460	0.941187
1469	0.941195
1478	0.941202
1487	0.941208
1496	0.941213
1505	0.941218
1514	0.941221
1523	0.941224
1532	0.941226
1541	0.941227
1550	0.941228
1559	0.941228
1568	0.941228
1577	0.941227
1586	0.941225
1595	0.941223
1604	0.94122
1613	0.941217
1622	0.941213
1631	0.941209
1640	0.941205
1649	0.9412
1658	0.941195
1667	0.94119
1676	0.941184
1685	0.941178
1694	0.941172
1703	0.941166
1712	0.941159
1721	0.941153
1730	0.941146
1739	0.941139
1748	0.941132
1757	0.941125
1766	0.941118
1775	0.94111
1784	0.941103
1793	0.941096
1802	0.941089
1811	0.941081
1820	0.941074
1829	0.941067
1838	0.94106
1847	0.941053
1856	0.941047
1865	0.94104
1874	0.941034
1883	0.941027
1892	0.941021
1901	0.941015
1910	0.94101
1919	0.941004
1928	0.940999
1937	0.940994
1946	0.94099
1955	0.940986
1964	0.940982
1973	0.940978
1982	0.940975
1991	0.940972
2000	0.940969
2009	0.940967
2018	0.940965
2027	0.940964
2036	0.940963
2045	0.940962
2054	0.940962
2063	0.940962
2072	0.940963
2081	0.940964
2090	0.940966
2099	0.940968
2108	0.940971
2117	0.940974
2126	0.940978
2135	0.940982
2144	0.940986
2153	0.940992
2162	0.940997
2171	0.941004
2180	0.941011
2189	0.941018
2198	0.941026
2207	0.941035
2216	0.941044
2225	0.941053
2234	0.941064
2243	0.941075
2252	0.941086
2261	0.941098
2270	0.941111
2279	0.941124
2288	0.941138
2297	0.941153
2306	0.941168
2315	0.941184
2324	0.9412
2333	0.941218
2342	0.941235
2351	0.941254
2360	0.941273
2369	0.941292
2378	0.941313
2387	0.941334
2396	0.941356
2405	0.941378
2414	0.941401
2423	0.941425
2432	0.941449
2441	0.941474
2450	0.9415
2459	0.941526
2468	0.941553
2477	0.941581
2486	0.941609
2495	0.941638
2504	0.941668
2513	0.941698
2522	0.941729
2531	0.941761
2540	0.941793
2549	0.941826
2558	0.94186
2567	0.941894
2576	0.941929
2585	0.941965
2594	0.942001
2600	0.942026