File: src/etc/data/comp/optics/GG495.csv
# 495 nm Longpass Colored Glass Filter (GG495)
# Data from Item # FGL495, FGL495S & FGL495M at ThorLabs
# Measurements Made at Normal Incidence
Wavelength [nm],Transmission [%]
200,0.004609
210,0.002461
220,0.002192
230,0.004628
240,0.002173
250,0.003727
260,0.002644
270,0.001946
280,0.002884
290,0.000517
300,0.00197
310,0.002807
320,0.004977
330,0.002285
340,0.003745
350,0.003537
360,-0.000416
370,0.001874
380,0.001353
390,0.003121
400,0.003224
410,0.003742
420,0.002182
430,0.001142
440,0.000726
450,0.004977
460,0.008085
470,0.085245
480,3.4745
490,38.1671
500,76.4306
510,86.7711
520,88.9989
530,89.7829
540,90.3329
550,90.683
560,90.7961
570,90.8527
580,90.9426
590,90.9653
600,91.0029
610,90.927
620,90.9012
630,90.9162
640,90.8425
650,90.7858
660,90.7264
670,90.685
680,90.6927
690,90.6815
700,90.6214
710,90.5651
720,90.4896
730,90.4149
740,90.3249
750,90.2385
760,90.1512
770,90.0724
780,90.002
790,89.8987
800,89.8621
810,89.7908
820,89.7078
830,89.7262
840,89.7136
850,89.59257
860,89.3929
870,89.3701
880,89.2652
890,89.1917
900,89.1507
910,89.0867
920,89.0358
930,88.9874
940,88.9444
950,88.9217
960,88.871
970,88.8539
980,88.8044
990,88.7756
1000,88.7604
1010,88.7506
1020,88.7277
1030,88.7196
1040,88.6806
1050,88.6952
1060,88.6939
1070,88.7028
1080,88.6896
1090,88.6757
1100,88.6927
1110,88.67147
1120,88.71507
1130,88.7034
1140,88.7039
1150,88.7111
1160,88.729
1170,88.7389
1180,88.74821
1190,88.7383
1200,88.7644
1210,88.7719
1220,88.7761
1230,88.8114
1240,88.8263
1250,88.8697
1260,88.8757
1270,88.8795
1280,88.9193
1290,88.9588
1300,88.9723
1310,88.9988
1320,89.0451
1330,89.0773
1340,89.0834
1350,89.1164
1360,89.1424
1370,89.1997
1380,89.23626
1390,89.1962
1400,89.1598
1410,89.178
1420,89.2317
1430,89.3237
1440,89.4136
1450,89.5063
1460,89.5291
1470,89.5884
1480,89.6643
1490,89.7042
1500,89.7708
1510,89.7648
1520,89.8643
1530,89.888
1540,89.85913
1550,89.8695
1560,89.9594
1570,90.1635
1580,90.251
1590,90.27745
1600,90.33041
1610,90.34561
1620,90.3461
1630,90.3658
1640,90.38334
1650,90.4024
1660,90.408
1670,90.4084
1680,90.4474
1690,90.43331
1700,90.4304
1710,90.4074
1720,90.4172
1730,90.4128
1740,90.3967
1750,90.3711
1760,90.3495
1770,90.3571
1780,90.3524
1790,90.2925
1800,90.3175