File: src/etc/data/comp/optics/LAL7_glass.dat
# Wavelength [nm]	Transmittance [0..1]
# Optical transmission for Ohara S-LAL7 (10mm thickness)
# From: https://refractiveindex.info/?shelf=glass&book=OHARA-LAL&page=S-LAL7
280.0	0.0900004
290.0	0.220002
300.0	0.380006
310.0	0.550001
320.0	0.689999
330.0	0.799999
340.0	0.88
350.0	0.929
360.0	0.957001
370.0	0.974
380.0	0.984
390.0	0.99
400.0	0.992
420.0	0.994
440.0	0.995
460.0	0.996
480.0	0.997
500.0	0.998
550.0	0.999
600.0	0.998
650.0	0.998
700.0	0.998
800.0	0.999
900.0	0.998
1000.0	0.998
1200.0	0.997
1400.0	0.991
1600.0	0.993
1800.0	0.984
2000.0	0.968
2200.0	0.903
2400.0	0.739999