File: src/etc/data/comp/optics/UVFusedSilica.dat
#Wavelength (nm)	%Transmission
# Transmission for uncoated UV fused silica
# From: ThorLabs Excel spreadsheet linked from https://www.thorlabs.com/NewGroupPage9.cfm?ObjectGroup_ID=3983
200	0.8742839
217	0.9035076
234	0.9083079
251	0.9187905
268	0.9228366
285	0.924973
302	0.9261894
319	0.9271877
336	0.9280188
353	0.9287195
370	0.9293167
387	0.9298306
404	0.9302766
421	0.9306668
438	0.9310107
455	0.9313156
472	0.9315876
489	0.9318317
506	0.9320519
523	0.9322515
540	0.9324333
557	0.9325995
574	0.9327522
591	0.9328931
608	0.9330235
625	0.9331447
642	0.9332577
659	0.9333634
676	0.9334627
693	0.9335562
710	0.9336446
727	0.9337283
744	0.9338079
761	0.9338837
778	0.9339562
795	0.9340256
812	0.9340923
829	0.9341565
846	0.9342185
863	0.9342785
880	0.9343367
897	0.9343932
914	0.9344482
931	0.9345019
948	0.9345543
965	0.9346057
982	0.9346561
999	0.9347055
1016	0.9347542
1033	0.9348022
1050	0.9348495
1067	0.9348963
1084	0.9349426
1101	0.9349884
1118	0.9350339
1135	0.9350852
1152	0.9351299
1169	0.9351744
1186	0.9352187
1203	0.9352628
1220	0.9353067
1237	0.9353506
1254	0.9353944
1271	0.9354382
1288	0.9354819
1305	0.9355257
1322	0.9355695
1339	0.9356134
1356	0.9345602
1373	0.894135
1390	0.8481883
1407	0.9096116
1424	0.9305246
1441	0.9358791
1458	0.935924
1475	0.9359691
1492	0.9360143
1509	0.9360598
1526	0.9361056
1543	0.9361516
1560	0.9361979
1577	0.9362445
1594	0.9362913
1611	0.9363385
1628	0.9363859
1645	0.9364337
1662	0.9364818
1679	0.9365302
1696	0.936579
1713	0.9366281
1730	0.9366776
1747	0.9367274
1764	0.9367776
1781	0.9368282
1798	0.9368792
1815	0.9369306
1832	0.9369824
1849	0.9370345
1866	0.9370871
1883	0.9371401
1900	0.9371935
1917	0.9372474
1934	0.9373016
1951	0.9373563
1968	0.9374115
1985	0.9374671
2002	0.9375231
2019	0.9375796
2036	0.9354505
2053	0.9319404
2070	0.9311064
2087	0.9315781
2104	0.929679
2121	0.9261774
2138	0.9177117
2155	0.8983106
2172	0.8752142
2189	0.8004362
2206	0.5989912
2223	0.6256876
2240	0.6650547
2257	0.6991
2274	0.7623828
2291	0.8170763
2308	0.8550414
2325	0.8776913
2342	0.889396
2359	0.8948293
2376	0.89595
2393	0.8918468
2410	0.8786285
2427	0.8617065
2444	0.8426381
2461	0.8248695
2478	0.803464
2495	0.7749489
2512	0.7361458
2529	0.6900306
2546	0.6399249
2563	0.5934423
2580	0.553148
2597	0.518728
2613.93	0.4712989
2630.77	0.4400101
2647.86	0.3865024
2664.67	0.2778145
2681.75	0.0796251
2698.81	0.015714
2715.85	0.005092
2732.89	0.0025884
2749.63	0.007617
2766.64	0.0064064
2783.64	0.0091968
2800.62	0.0043354
2817.59	0.0084913
2834.82	0.0471524
2851.77	0.1168744
2868.7	0.223209
2885.61	0.3361002
2902.79	0.4204156
2919.68	0.4953861
2936.55	0.5526025
2953.69	0.6013674
2970.81	0.6390907
2987.64	0.6621737
3004.73	0.6947396
3021.54	0.7068656
3038.6	0.7283159
3055.65	0.7475179
3072.68	0.7554898
3089.7	0.7645486
3106.7	0.7680929
3123.69	0.770836
3140.66	0.7791687
3157.62	0.7894454
3174.56	0.7908921
3191.48	0.7888424
3208.66	0.8033687
3225.56	0.8112842
3242.71	0.8085244
3259.57	0.8173533
3276.69	0.8187223
3293.52	0.8195503
3310.6	0.8233772
3327.67	0.8137446
3344.45	0.8182857
3361.48	0.8098745
3378.5	0.807546
3395.5	0.8039177
3412.48	0.7825791
3429.45	0.7740309
3446.4	0.7540659
3463.59	0.7307957
3480.51	0.696886
3497.4	0.6570523
3514.55	0.6124273
3531.41	0.573112
3548.51	0.5287519
3565.6	0.5004049
3582.41	0.4722939
3599.46	0.4370142
3616.5	0.4239481
3633.51	0.3916469
3650.51	0.3495287
3667.48	0.3088488
3684.44	0.2651656
3701.38	0.2400058
3718.3	0.2158565
3735.46	0.1866775
3752.34	0.1710645
3769.47	0.1628789
3786.31	0.1734962
3803.39	0.1765528
3820.45	0.1782494
3837.49	0.1711598
3854.26	0.1703166
3871.26	0.1709076
3888.49	0.1613792
3905.45	0.1625009
3922.39	0.1683409
3939.31	0.1513393
3956.46	0.1487102
3973.34	0.138914
3990.45	0.1337758
4007.28	0.1224057
4024.35	0.1086469
4041.392	0.0923115
4058.41	0.0851741
4075.41	0.0737223
4092.39	0.0549327
4109.35	0.0456253
4126.28	0.0387491
4143.19	0.0216027
4160.33	0.0220332
4177.19	0.0162242
4194.29	0.0295872
4211.36	0.0123418
4228.15	0.0141919
4245.17	0.0205741
4262.17	0.0146224
4279.14	0.0145061
4296.34	0.0152905
4313.27	0.0083503
4330.17	0.004375
4347.3	0.0215705
4364.15	0.0010242
4381.22	0.0042632
4398.27	0.0033793
4415.29	4.8745E-06
4432.29	0.005847
4449.26	0.00016
4466.21	0.0031173
4483.13	0.0015949
4500.27	9.09E-05
4517.14	0.0045893
4534.22	0.0006192
4551.04	0.0025824
4568.07	0.0032968
4585.08	0.0018544
4602.05	0.0036445
4619.24	0.0023084
4636.17	0.0052736
4653.06	0.0007729
4670.17	0.0058547
4687.01	0.0081226
4704.06	0.0083956
4721.08	0.0043508
4738.07	0.0012703
4755.03	0.0052064
4771.97	0.0079585
4789.11	0.0023136
4805.98	0.0028716
4823.06	0.0016624
4840.12	0.0021026
4857.14	0.0004409
4874.13	0.0073303
4891.09	0.0055255
4908.02	0.0033163
4924.91	0.000676
4942.02	0.0055312
4959.08	0.0026763
4976.12	0.002161
4992.89	0.0003304
5000.1	0.0122499